time(s)	nformants	F1(Hz)	F2(Hz)	F3(Hz)	F4(Hz)
0.027359	3	963.698	1928.135	4249.520	--undefined--
0.033609	2	994.679	2003.516	--undefined--	--undefined--
0.039859	2	1040.253	2297.173	--undefined--	--undefined--
0.046109	2	1025.609	2367.262	--undefined--	--undefined--
0.052359	2	994.260	2090.320	--undefined--	--undefined--
0.058609	2	1023.793	2114.237	--undefined--	--undefined--
0.064859	2	748.993	2100.933	--undefined--	--undefined--
0.071109	2	731.872	2074.385	--undefined--	--undefined--
0.077359	3	778.579	1996.650	2929.978	--undefined--
0.083609	3	1138.740	2068.538	2987.258	--undefined--
0.089859	3	899.111	2091.331	3053.693	--undefined--
0.096109	3	840.622	2098.397	3296.479	--undefined--
0.102359	3	724.106	1986.257	3284.359	--undefined--
0.108609	3	543.668	1630.840	3109.001	--undefined--
0.114859	3	330.884	1510.288	3105.441	--undefined--
0.121109	3	546.235	1700.876	3060.394	--undefined--
0.127359	3	868.968	1888.095	3229.721	--undefined--
0.133609	3	782.132	2017.032	3233.700	--undefined--
0.139859	3	1007.977	1969.200	2978.155	--undefined--
0.146109	3	1033.019	1907.869	3120.239	--undefined--
0.152359	3	1034.200	1950.132	3098.039	--undefined--
0.158609	3	1133.936	2114.051	3217.311	--undefined--
0.164859	3	1091.377	2061.047	3105.133	--undefined--
0.171109	3	912.882	2190.938	3221.930	--undefined--
0.177359	3	884.129	2102.374	3248.040	--undefined--
0.183609	3	985.463	2002.484	3181.633	--undefined--
0.189859	2	1543.331	2658.228	--undefined--	--undefined--
0.196109	3	454.746	1676.162	2917.633	--undefined--
0.202359	3	548.873	1770.111	2985.761	--undefined--
0.208609	3	468.363	1920.820	3054.076	--undefined--
0.214859	3	974.813	1854.567	2941.733	--undefined--
0.221109	3	945.517	1775.097	2981.242	--undefined--
0.227359	3	399.849	1848.222	3105.248	--undefined--
0.233609	3	994.745	1942.564	3090.271	--undefined--
0.239859	3	1313.066	2038.316	3247.954	--undefined--
0.246109	3	1167.012	2064.961	3322.088	--undefined--
0.252359	3	851.654	2048.597	3227.222	--undefined--
0.258609	3	630.032	1889.461	3036.704	--undefined--
0.264859	4	627.741	1416.607	2585.356	3811.735
0.271109	4	636.216	1430.613	2590.950	3778.984
0.277359	4	677.621	1467.935	2494.340	3781.826
0.283609	4	671.668	1463.182	2457.661	3790.324
0.289859	4	659.888	1421.000	2486.594	3745.312
0.296109	4	656.404	1424.025	2514.087	3736.396
0.302359	4	661.643	1427.237	2500.689	3721.291
0.308609	4	664.414	1440.160	2537.142	3720.444
0.314859	4	659.586	1477.884	2442.946	3675.738
0.321109	4	649.160	1484.587	2405.783	3702.880
0.327359	4	642.302	1480.378	2399.316	3701.567
0.333609	4	664.999	1498.127	2531.769	3590.840
0.339859	4	692.598	1514.429	2606.506	3572.253
0.346109	4	683.691	1541.717	2611.840	3522.955
0.352359	4	665.292	1551.062	2572.343	3497.633
0.358609	4	647.692	1563.253	2552.290	3479.016
0.364859	4	640.868	1567.807	2646.074	3454.474
0.371109	4	644.566	1554.419	2573.750	3460.311
0.377359	4	653.275	1561.706	2559.928	3507.157
0.383609	4	621.488	1584.524	2581.314	3511.153
0.389859	4	602.426	1593.037	2508.320	3444.812
0.396109	4	560.244	1560.575	2495.326	3469.659
0.402359	4	511.798	1566.092	2492.207	3392.471
0.408609	4	506.445	1529.137	2470.447	3386.330
0.414859	4	455.491	1533.260	2380.337	3461.605
0.421109	4	468.565	1602.843	2441.391	3636.801
0.427359	4	483.674	1622.583	2401.786	3657.481
0.433609	4	500.177	1673.712	2543.331	3602.810
0.439859	4	511.271	1686.385	2553.737	3577.957
0.446109	4	516.205	1658.076	2513.096	3658.466
0.452359	4	515.950	1663.323	2492.911	3709.106
0.458609	4	514.670	1665.168	2500.321	3719.031
0.464859	4	515.589	1651.735	2494.473	3678.101
0.471109	4	494.621	1673.039	2415.457	3774.523
0.477359	4	508.585	1674.527	2439.397	3871.633
0.483609	4	500.438	1657.327	2518.104	3785.993
0.489859	4	525.523	1767.232	2751.838	3764.206
0.496109	4	580.976	1765.218	3140.438	3790.186
0.502359	4	600.336	1737.812	3079.325	4076.382
0.508609	4	692.680	1762.936	3002.490	4058.420
0.514859	4	633.850	1677.125	3027.959	3935.100
0.521109	4	570.827	1728.207	3072.671	3834.980
0.527359	4	575.527	1813.685	3079.703	3900.080
0.533609	4	606.061	1889.064	3115.602	3891.926
0.539859	3	679.984	2087.347	3205.172	--undefined--
0.546109	3	944.555	2209.816	3270.171	--undefined--
0.552359	3	754.142	2104.679	3253.793	--undefined--
0.558609	3	618.299	1947.605	2969.933	--undefined--
0.564859	3	567.254	1768.019	2834.674	--undefined--
0.571109	3	603.741	1814.525	2969.614	--undefined--
0.577359	4	651.248	1829.293	2742.011	4050.443
0.583609	4	469.110	1772.775	2507.367	3875.186
0.589859	4	390.213	1693.364	2348.147	3768.579
0.596109	4	363.135	1658.792	2385.600	3751.522
0.602359	4	310.657	1670.761	2486.708	3807.605
0.608609	4	340.043	1676.505	2404.179	3793.125
0.614859	4	335.895	1588.197	2258.086	3834.500
0.621109	4	366.506	1366.541	1998.184	3721.147
0.627359	3	369.672	2011.418	3822.786	--undefined--
0.633609	3	350.828	2020.470	3791.075	--undefined--
0.639859	4	319.211	1500.384	2050.224	3707.404
0.646109	4	311.548	1547.838	2019.067	3609.408
0.652359	4	299.957	1466.857	2063.127	3644.430
0.658609	4	360.572	1924.758	2019.079	3602.588
0.664859	4	409.165	1762.545	2257.187	3631.207
0.671109	4	431.131	1761.169	2383.188	3624.059
0.677359	4	432.069	1769.119	2392.912	3651.346
0.683609	4	436.900	1760.972	2377.011	3642.247
0.689859	4	431.698	1751.373	2402.486	3693.636
0.696109	4	421.965	1754.461	2387.395	3692.683
0.702359	4	428.449	1704.186	2343.528	3711.262
0.708609	4	450.418	1701.674	2419.077	3681.893
0.714859	4	403.313	1770.598	2360.366	3725.340
0.721109	4	414.978	1751.704	2350.626	3727.769
0.727359	4	443.334	1753.889	2353.539	3716.507
0.733609	4	459.326	1729.915	2398.431	3729.822
0.739859	4	474.066	1744.382	2380.202	3708.967
0.746109	4	516.545	1757.597	2437.093	3703.774
0.752359	4	502.973	1815.736	2572.089	3772.099
0.758609	4	493.207	2059.251	2713.278	3976.455
0.764859	4	516.732	2062.083	2687.400	3804.428
0.771109	4	476.027	2057.822	2562.407	3706.325
0.777359	4	397.671	2084.387	2481.574	3761.892
0.783609	4	361.245	2069.449	2502.184	3754.088
0.789859	4	350.331	2086.774	2541.383	3811.417
0.796109	4	363.436	2142.300	2505.168	3847.217
0.802359	4	379.606	2101.825	2562.749	3905.569
0.808609	4	383.435	2097.061	2635.811	3948.464
0.814859	4	388.296	2124.770	2656.677	3899.009
0.821109	4	388.462	2117.886	2605.644	3905.144
0.827359	4	390.782	2071.706	2563.750	3887.469
0.833609	4	407.434	2101.832	2521.468	3920.234
0.839859	4	436.012	2061.505	2418.758	3888.182
0.846109	4	445.927	1964.915	2504.269	3846.092
0.852359	4	445.424	1907.378	2549.382	3809.548
0.858609	4	455.633	1830.521	2560.652	3837.905
0.864859	4	466.917	1761.941	2545.748	3837.244
0.871109	4	435.979	1742.454	2470.071	3745.726
0.877359	4	440.808	1774.409	2470.668	3734.114
0.883609	4	454.386	1882.954	2387.008	3872.871
0.889859	4	429.326	1805.434	2358.995	3936.540
0.896109	4	445.251	1744.196	2460.227	3964.479
0.902359	4	433.564	1756.144	2533.283	3802.272
0.908609	4	425.306	1685.774	2525.394	3790.834
0.914859	4	450.900	1673.589	2421.266	3911.988
0.921109	4	457.880	1681.198	2412.606	3949.247
0.927359	4	473.706	1741.110	2431.833	3941.441
0.933609	4	483.934	1751.823	2420.750	3937.618
0.939859	4	489.873	1747.794	2364.106	3949.527
0.946109	4	458.657	1739.897	2357.102	3961.118
0.952359	4	431.875	1839.796	2276.307	3951.848
0.958609	4	432.962	1805.581	2201.882	3860.788
0.964859	4	449.254	1739.044	2191.878	3914.178
0.971109	4	420.902	1729.831	2266.406	3942.159
0.977359	4	465.178	1751.917	2332.133	3948.241
0.983609	4	492.276	1778.596	2340.004	3939.071
0.989859	4	473.141	1812.740	2348.611	3879.633
0.996109	4	450.139	1818.149	2478.994	3782.954
1.002359	4	457.735	1886.282	2725.452	3637.531
1.008609	4	464.422	2159.552	2789.372	3509.905
1.014859	4	380.596	2226.377	2772.128	3522.138
1.021109	4	386.277	1952.296	2443.488	3565.128
1.027359	4	388.499	2034.390	2349.587	3648.960
1.033609	3	395.906	2258.424	3496.942	--undefined--
1.039859	4	395.058	1908.127	2270.027	3664.431
1.046109	4	390.843	2183.162	2209.607	3657.731
1.052359	3	387.306	2160.585	3614.594	--undefined--
1.058609	4	391.083	2044.080	2176.589	3760.405
1.064859	4	349.161	1811.969	2154.000	3801.094
1.071109	4	390.675	1456.009	2146.710	3757.637
1.077359	4	359.612	1447.061	2157.248	3782.293
1.083609	4	365.498	1178.388	2149.512	3644.355
1.089859	4	353.121	1267.542	2172.341	3724.565
1.096109	4	353.719	1159.637	2179.273	3740.885
1.102359	4	349.358	1253.415	2214.247	3741.042
1.108609	4	354.134	1243.833	2245.902	3757.466
1.114859	4	363.364	1306.868	2188.788	3873.012
1.121109	4	351.925	1267.191	2165.590	3672.600
1.127359	4	397.816	1182.015	2162.640	3611.151
1.133609	4	396.579	1361.983	2186.315	3568.530
1.139859	4	417.992	1591.389	2193.473	3407.618
1.146109	4	420.137	1945.138	2484.688	3378.998
1.152359	4	419.851	2019.788	2656.322	3389.792
1.158609	4	431.046	2124.307	2706.429	3414.993
1.164859	4	429.725	2107.963	2741.158	3436.757
1.171109	4	446.178	2075.455	2673.212	3459.334
1.177359	4	443.181	2052.925	2664.982	3466.406
1.183609	4	465.934	2032.128	2649.692	3457.613
1.189859	4	464.137	2029.125	2673.389	3487.924
1.196109	4	464.970	1986.955	2668.441	3507.967
1.202359	4	463.601	1942.917	2652.747	3484.551
1.208609	4	463.635	1898.621	2690.574	3439.971
1.214859	4	459.792	1868.338	2728.026	3498.200
1.221109	4	456.041	1839.687	2669.836	3538.410
1.227359	4	454.964	1855.082	2558.293	3606.235
1.233609	4	445.911	1840.606	2576.794	3629.896
1.239859	4	434.948	1820.534	2631.803	3664.923
1.246109	4	432.778	1840.980	2599.047	3749.035
1.252359	4	416.036	1829.883	2563.154	3822.652
1.258609	4	413.032	1826.970	2512.337	3727.484
1.264859	4	393.791	1856.680	2446.570	3636.791
1.271109	4	401.890	1916.883	2562.591	3704.439
1.277359	4	413.460	1933.127	2567.005	3636.954
1.283609	4	410.779	1911.074	2777.886	3593.387
1.289859	4	447.828	1878.501	2580.582	3614.337
1.296109	4	439.694	1856.960	2584.870	3658.511
1.302359	4	445.989	1828.946	2598.190	3632.364
1.308609	4	391.548	1815.141	2515.090	3550.513
1.314859	4	358.646	1845.294	2418.668	3530.775
1.321109	4	380.033	1816.972	2411.940	3615.727
1.327359	4	374.150	1798.274	2395.074	3678.785
1.333609	4	357.028	1785.265	2440.232	3634.862
1.339859	4	357.032	1769.745	2556.170	3553.271
1.346109	4	346.108	1752.371	2531.650	3561.306
1.352359	4	359.624	1753.810	2534.770	3462.181
1.358609	4	339.992	1776.997	2381.313	3508.896
1.364859	4	356.033	1707.443	2302.683	3677.099
1.371109	4	376.127	1642.607	2304.964	3503.804
1.377359	4	334.482	1599.900	2279.701	3465.241
1.383609	4	335.234	1554.303	2242.446	3456.341
1.389859	4	321.908	1508.485	2261.371	3522.842
1.396109	4	340.280	1571.759	2262.726	3655.456
1.402359	4	340.693	1510.942	2281.883	3814.452
1.408609	4	362.639	1566.526	2305.822	3810.513
1.414859	4	329.115	1608.493	2355.975	3841.589
1.421109	4	317.613	1714.112	2297.575	3696.373
1.427359	4	377.483	2039.253	2956.918	3540.446
1.433609	4	436.720	1994.917	3169.991	3736.691
1.439859	4	542.902	1974.255	3258.997	3716.120
1.446109	4	520.047	1675.042	2533.873	3678.828
1.452359	4	463.549	1627.008	2392.278	3628.938
1.458609	4	456.571	1557.721	2400.237	3626.593
1.464859	4	494.989	1434.492	2312.413	3584.951
1.471109	4	510.339	1377.338	2241.058	3557.386
1.477359	4	549.375	1519.381	2311.261	3487.570
1.483609	4	569.551	1497.019	2439.351	3498.223
1.489859	4	616.703	1677.731	2150.310	3510.991
1.496109	4	616.583	1542.648	2341.390	3502.834
1.502359	4	644.611	1505.310	2309.630	3480.213
1.508609	4	638.636	1564.805	2299.834	3490.560
1.514859	4	658.527	1706.061	2466.121	3474.338
1.521109	3	645.208	1913.043	3485.280	--undefined--
1.527359	4	668.586	1087.848	2027.719	3471.336
1.533609	4	642.946	1337.636	2083.019	3477.634
1.539859	4	629.066	1202.138	2351.080	3480.917
1.546109	4	581.727	1242.441	2434.331	3485.051
1.552359	4	674.153	856.983	1994.471	3455.247
1.558609	4	571.423	681.786	2030.660	3437.433
1.564859	4	593.214	1127.349	2044.513	3449.572
1.571109	4	511.291	559.108	1901.368	3447.337
1.577359	4	592.531	1344.028	2083.726	3475.780
1.583609	4	562.460	1049.622	2238.976	3451.388
1.589859	4	552.622	1037.676	2306.022	3438.816
1.596109	4	537.180	1036.878	2303.755	3398.513
1.602359	4	493.578	937.613	2229.814	3471.271
1.608609	4	586.258	728.677	2339.542	3453.531
1.614859	4	613.341	938.375	2531.472	3455.169
1.621109	4	605.037	1015.607	2578.276	3460.648
1.627359	4	633.917	1045.016	2584.103	3490.302
1.633609	4	629.216	1037.590	2466.802	3495.801
1.639859	4	631.852	1024.970	2450.346	3502.494
1.646109	4	663.287	1030.843	2467.933	3479.169
1.652359	4	653.369	1047.510	2520.112	3493.810
1.658609	4	644.545	1072.187	2630.220	3542.842
1.664859	4	659.221	1149.894	2573.158	3570.556
1.671109	4	662.567	1137.360	2573.955	3592.834
1.677359	4	647.324	1142.473	2449.607	3585.653
1.683609	4	613.360	1145.354	2410.625	3671.863
1.689859	4	613.396	1212.086	2576.653	3682.024
1.696109	4	616.669	1263.498	2601.235	3759.744
1.702359	4	787.432	1087.286	2570.563	3725.787
1.708609	3	799.327	2352.858	3488.683	--undefined--
1.714859	4	824.991	2301.696	3169.419	3821.428
1.721109	4	849.598	2393.315	3423.908	3830.626
1.727359	4	812.036	2437.774	3476.388	3794.965
1.733609	3	819.890	2518.029	3427.803	--undefined--
1.739859	3	914.676	2580.643	3473.154	--undefined--
1.746109	4	804.401	2262.942	3152.261	3756.532
1.752359	3	811.875	2215.089	3407.078	--undefined--
1.758609	3	974.729	2339.966	3477.200	--undefined--
1.764859	3	879.804	2355.470	3507.540	--undefined--
1.771109	3	903.723	2268.913	3439.492	--undefined--
1.777359	3	960.427	2167.690	3245.707	--undefined--
1.783609	3	997.946	2347.627	3401.877	--undefined--
1.789859	3	1012.469	2407.105	3552.636	--undefined--
1.796109	3	941.639	2389.171	3518.663	--undefined--
1.802359	4	844.813	2250.206	3648.571	3746.297
1.808609	3	866.984	2298.035	3497.767	--undefined--
1.814859	3	829.218	2342.622	3374.123	--undefined--
1.821109	3	784.456	2295.194	3262.116	--undefined--
1.827359	3	718.214	2041.174	3158.699	--undefined--
1.833609	3	722.761	2199.803	3376.274	--undefined--
1.839859	3	846.124	2328.053	3700.886	--undefined--
1.846109	4	694.068	2494.892	2722.856	4107.823
1.852359	4	710.757	1720.449	2915.252	3911.181
1.858609	4	705.259	1690.170	2880.233	3687.290
1.864859	4	555.550	1529.526	2639.006	3774.515
1.871109	4	494.021	1195.084	2557.863	3887.147
1.877359	4	609.916	1079.715	2521.451	3788.184
1.883609	4	627.729	1071.715	2501.562	3735.278
1.889859	4	637.342	1142.092	2553.578	3772.745
1.896109	4	647.934	1170.126	2788.003	3734.327
1.902359	4	577.960	1039.360	2609.377	3606.344
1.908609	4	440.162	1072.028	2583.208	3651.615
1.914859	4	640.480	1093.877	2581.777	3811.525
1.921109	4	731.374	1097.942	2714.127	3814.408
1.927359	4	685.893	1115.109	2670.107	3512.837
1.933609	4	588.810	1129.965	2675.103	3519.791
1.939859	4	610.780	1116.489	2648.411	3546.907
1.946109	4	638.952	1132.484	2613.236	3708.962
1.952359	4	609.797	1121.379	2664.883	3771.412
1.958609	4	606.649	1073.436	2756.563	3850.638
1.964859	4	622.824	1213.433	2881.194	3815.515
1.971109	4	608.119	1115.219	2825.478	3768.786
1.977359	4	601.582	1048.912	2743.759	3755.145
1.983609	4	603.071	1133.590	2722.019	3725.973
1.989859	4	588.792	1122.557	2614.663	3729.055
1.996109	4	583.529	1195.845	2714.192	3760.990
2.002359	4	576.945	1143.857	2683.511	3683.960
2.008609	4	569.106	1203.485	2682.293	3665.346
2.014859	4	563.671	1251.635	2759.972	3751.733
2.021109	4	555.675	1252.969	2857.997	3741.378
2.027359	4	536.149	1299.244	2994.819	3776.047
2.033609	4	524.195	1236.507	2832.428	3702.310
2.039859	4	529.062	1290.007	2812.999	3667.797
2.046109	4	541.661	1323.882	2833.606	3745.623
2.052359	4	489.533	1277.124	2708.941	3927.410
2.058609	4	480.649	1288.488	2720.146	3748.476
2.064859	4	564.695	1521.936	2809.841	3808.723
2.071109	3	528.556	1994.007	3109.252	--undefined--
2.077359	4	446.769	1967.520	2508.623	3941.950
2.083609	4	414.412	1584.588	2743.636	3859.588
2.089859	4	487.975	1634.170	2642.684	3788.638
2.096109	4	445.212	1709.604	2478.085	3756.638
2.102359	4	427.474	1831.663	2595.146	3868.331
2.108609	4	407.328	1785.501	2497.725	3943.329
2.114859	4	436.133	1764.649	2419.051	3758.342
2.121109	4	521.309	1847.492	2299.919	3737.998
2.127359	4	436.331	1632.470	2226.711	3839.053
2.133609	4	413.941	1730.563	2190.683	3865.918
2.139859	4	387.335	1828.948	2346.209	3876.072
2.146109	4	509.630	1722.286	2448.457	3926.365
2.152359	4	581.311	1747.888	2410.228	3915.793
2.158609	4	479.570	1726.480	2456.851	3911.786
2.164859	4	452.627	1772.061	2694.770	3923.229
2.171109	4	467.264	1945.884	2384.333	3879.627
2.177359	4	404.336	1793.294	2460.598	3867.473
2.183609	4	409.604	1711.131	2564.596	3936.463
2.189859	4	519.314	1665.860	2548.129	4000.619
2.196109	4	715.681	1444.026	2278.939	3763.459
2.202359	3	716.657	1510.047	2465.675	--undefined--
2.208609	3	729.636	1598.667	2599.532	--undefined--
2.214859	3	482.512	1987.219	3837.225	--undefined--
2.221109	4	337.522	1833.535	2653.701	3953.398
